  z [ m ]   p [ m b ]   t p [ K ]   q [ g / k g ]   u [ m / s ]   v [ m / s ]
0.000000,      72.000000,      1015.000000,
37      1010.7745      300.1425      18.1577      0.0      0.0
112      1002.2527      300.4313      17.8108      0.0      0.0
194      993.0017      300.7474      17.4351      0.0      0.0
288      982.4815      301.1098      17.0094      0.0      0.0
395      970.6156      301.5227      16.5311      0.0      0.0
520      956.8998      302.0053      15.9813      0.0      0.0
667      940.9698      302.5731      15.3474      0.0      0.0
843      922.1784      303.2533      14.6068      0.0      0.0
1062      899.2184      304.1      13.7143      0.0      0.0
1331      871.6478      305.1404      12.6633      0.0      0.0
1664      838.4633      306.4284      11.4331      0.0      0.0
2055      800.8034      307.9406      10.0904      0.0      0.0
2505      759.1567      309.6805      8.6816      0.0      0.0
3000      715.3752      311.5942      7.2983      0.0      0.0
3500      673.2358      313.5281      6.0718      0.0      0.0
4000      633.1155      315.4648      5.0074      0.0      0.0
4500      594.9404      317.4066      4.0937      0.0      0.0
5000      558.6381      319.3562      3.3176      0.0      0.0
5500      524.1385      321.3169      2.6651      0.0      0.0
6000      491.3729      323.2919      2.1223      0.0      0.0
6500      460.2747      325.2844      1.6752      0.0      0.0
7000      430.7789      327.2979      1.3107      0.0      0.0
7500      402.8222      329.3356      1.0165      0.0      0.0
8000      376.3431      331.4009      0.7814      0.0      0.0
8500      351.2818      333.4967      0.5954      0.0      0.0
9000      327.5802      335.626      0.4497      0.0      0.0
9500      305.1816      337.7916      0.3366      0.0      0.0
10000      284.0311      339.9963      0.2498      0.0      0.0
10500      264.0756      342.2426      0.1837      0.0      0.0
11000      245.2631      344.533      0.1339      0.0      0.0
11500      227.5434      346.8699      0.0967      0.0      0.0
12000      210.8679      349.2556      0.0693      0.0      0.0
12500      195.1894      351.6927      0.0492      0.0      0.0
13000      180.4621      354.1834      0.0346      0.0      0.0
13500      166.6416      356.73      0.0241      0.0      0.0
14000      153.6852      359.3352      0.0167      0.0      0.0
14500      141.5513      362.0013      0.0114      0.0      0.0
15000      130.1999      364.731      0.0078      0.0      0.0
15500      119.6763      373.6265      0.0      0.0      0.0
16000      110.0033      382.7373      0.0      0.0      0.0
16500      101.1122      392.0702      0.0      0.0      0.0
17000      92.9397      401.6306      0.0      0.0      0.0
17500      85.4277      411.4242      0.0      0.0      0.0
18000      78.5229      421.4566      0.0      0.0      0.0
18500      72.1762      431.7337      0.0      0.0      0.0
19000      66.3425      442.2613      0.0      0.0      0.0
19500      60.9802      453.0457      0.0      0.0      0.0
20000      56.0514      464.093      0.0      0.0      0.0
20500      51.521      475.4097      0.0      0.0      0.0
21000      47.3568      487.0024      0.0      0.0      0.0
21500      43.5291      498.8778      0.0      0.0      0.0
22000      40.0108      511.0427      0.0      0.0      0.0
22500      36.7769      523.5042      0.0      0.0      0.0
23000      33.8043      536.2697      0.0      0.0      0.0
23500      31.0721      549.3464      0.0      0.0      0.0
24000      28.5606      562.742      0.0      0.0      0.0
24500      26.2522      576.4642      0.0      0.0      0.0
25000      24.1303      590.521      0.0      0.0      0.0
25500      22.1799      604.9206      0.0      0.0      0.0
26000      20.3872      619.6714      0.0      0.0      0.0
26500      18.7394      634.7818      0.0      0.0      0.0
27000      17.2248      650.2607      0.0      0.0      0.0
27500      15.8326      666.117      0.0      0.0      0.0
28000      14.5529      682.36      0.0      0.0      0.0
28500      13.3766      698.9991      0.0      0.0      0.0
29000      12.2954      716.0439      0.0      0.0      0.0
29500      11.3016      733.5043      0.0      0.0      0.0
30000      10.3882      751.3905      0.0      0.0      0.0
30500      9.5485      769.7129      0.0      0.0      0.0
31000      8.7768      788.482      0.0      0.0      0.0
31500      8.0674      807.7088      0.0      0.0      0.0
32000 7.4153 827.4044 0.0 0.0 0.0
1.000000,      72.000000,      1015.000000,
37      1010.7745      300.1425      18.1577      0.0      0.0
112      1002.2527      300.4313      17.8108      0.0      0.0
194      993.0017      300.7474      17.4351      0.0      0.0
288      982.4815      301.1098      17.0094      0.0      0.0
395      970.6156      301.5227      16.5311      0.0      0.0
520      956.8998      302.0053      15.9813      0.0      0.0
667      940.9698      302.5731      15.3474      0.0      0.0
843      922.1784      303.2533      14.6068      0.0      0.0
1062      899.2184      304.1      13.7143      0.0      0.0
1331      871.6478      305.1404      12.6633      0.0      0.0
1664      838.4633      306.4284      11.4331      0.0      0.0
2055      800.8034      307.9406      10.0904      0.0      0.0
2505      759.1567      309.6805      8.6816      0.0      0.0
3000      715.3752      311.5942      7.2983      0.0      0.0
3500      673.2358      313.5281      6.0718      0.0      0.0
4000      633.1155      315.4648      5.0074      0.0      0.0
4500      594.9404      317.4066      4.0937      0.0      0.0
5000      558.6381      319.3562      3.3176      0.0      0.0
5500      524.1385      321.3169      2.6651      0.0      0.0
6000      491.3729      323.2919      2.1223      0.0      0.0
6500      460.2747      325.2844      1.6752      0.0      0.0
7000      430.7789      327.2979      1.3107      0.0      0.0
7500      402.8222      329.3356      1.0165      0.0      0.0
8000      376.3431      331.4009      0.7814      0.0      0.0
8500      351.2818      333.4967      0.5954      0.0      0.0
9000      327.5802      335.626      0.4497      0.0      0.0
9500      305.1816      337.7916      0.3366      0.0      0.0
10000      284.0311      339.9963      0.2498      0.0      0.0
10500      264.0756      342.2426      0.1837      0.0      0.0
11000      245.2631      344.533      0.1339      0.0      0.0
11500      227.5434      346.8699      0.0967      0.0      0.0
12000      210.8679      349.2556      0.0693      0.0      0.0
12500      195.1894      351.6927      0.0492      0.0      0.0
13000      180.4621      354.1834      0.0346      0.0      0.0
13500      166.6416      356.73      0.0241      0.0      0.0
14000      153.6852      359.3352      0.0167      0.0      0.0
14500      141.5513      362.0013      0.0114      0.0      0.0
15000      130.1999      364.731      0.0078      0.0      0.0
15500      119.6763      373.6265      0.0      0.0      0.0
16000      110.0033      382.7373      0.0      0.0      0.0
16500      101.1122      392.0702      0.0      0.0      0.0
17000      92.9397      401.6306      0.0      0.0      0.0
17500      85.4277      411.4242      0.0      0.0      0.0
18000      78.5229      421.4566      0.0      0.0      0.0
18500      72.1762      431.7337      0.0      0.0      0.0
19000      66.3425      442.2613      0.0      0.0      0.0
19500      60.9802      453.0457      0.0      0.0      0.0
20000      56.0514      464.093      0.0      0.0      0.0
20500      51.521      475.4097      0.0      0.0      0.0
21000      47.3568      487.0024      0.0      0.0      0.0
21500      43.5291      498.8778      0.0      0.0      0.0
22000      40.0108      511.0427      0.0      0.0      0.0
22500      36.7769      523.5042      0.0      0.0      0.0
23000      33.8043      536.2697      0.0      0.0      0.0
23500      31.0721      549.3464      0.0      0.0      0.0
24000      28.5606      562.742      0.0      0.0      0.0
24500      26.2522      576.4642      0.0      0.0      0.0
25000      24.1303      590.521      0.0      0.0      0.0
25500      22.1799      604.9206      0.0      0.0      0.0
26000      20.3872      619.6714      0.0      0.0      0.0
26500      18.7394      634.7818      0.0      0.0      0.0
27000      17.2248      650.2607      0.0      0.0      0.0
27500      15.8326      666.117      0.0      0.0      0.0
28000      14.5529      682.36      0.0      0.0      0.0
28500      13.3766      698.9991      0.0      0.0      0.0
29000      12.2954      716.0439      0.0      0.0      0.0
29500      11.3016      733.5043      0.0      0.0      0.0
30000      10.3882      751.3905      0.0      0.0      0.0
30500      9.5485      769.7129      0.0      0.0      0.0
31000      8.7768      788.482      0.0      0.0      0.0
31500      8.0674      807.7088      0.0      0.0      0.0
32000      7.4153      827.4044      0.0      0.0      0.0
